Wavelength (Î¼m), R (B), T (B), A (B), R (C), T (C), A (C)
18.000000, 0.948919, 0.000000,                     0.051081, 0.948919, 0.000000, 0.051081
12.461538, 0.953307, 0.000000,                     0.046693, 0.953307, 0.000000, 0.046693
9.529412, 0.959980, 0.000000,                     0.040020, 0.959980, 0.000000, 0.040020
7.714286, 0.968412, 0.000000,                     0.031588, 0.968412, 0.000000, 0.031588
6.480000, 0.978339, 0.000000,                     0.021661, 0.978339, 0.000000, 0.021661
5.586207, 0.989593, 0.000000,                     0.010407, 0.989593, 0.000000, 0.010407
4.909091, 1.001886, 0.000000,                     -0.001886, 1.001886, 0.000000, -0.001886
4.378378, 1.015003, 0.000000,                     -0.015003, 1.015003, 0.000000, -0.015003
3.951220, 1.028788, 0.000000,                     -0.028788, 1.028788, 0.000000, -0.028788
3.600000, 1.043010, 0.000000,                     -0.043010, 1.043010, 0.000000, -0.043010
3.306122, 1.057360, 0.000000,                     -0.057360, 1.057360, 0.000000, -0.057360
3.056604, 1.071579, 0.000000,                     -0.071579, 1.071579, 0.000000, -0.071579
2.842105, 1.085186, 0.000000,                     -0.085186, 1.085186, 0.000000, -0.085186
2.655738, 1.097678, 0.000000,                     -0.097678, 1.097678, 0.000000, -0.097678
2.492308, 1.108887, 0.000000,                     -0.108887, 1.108887, 0.000000, -0.108887
2.347826, 1.118698, 0.000000,                     -0.118699, 1.118698, 0.000000, -0.118699
2.219178, 1.126816, 0.000000,                     -0.126816, 1.126816, 0.000000, -0.126816
2.103896, 1.132933, 0.000000,                     -0.132933, 1.132933, 0.000000, -0.132933
2.000000, 1.136837, 0.000000,                     -0.136837, 1.136837, 0.000000, -0.136837
1.905882, 1.138416, 0.000000,                     -0.138416, 1.138416, 0.000000, -0.138416
1.820225, 1.137560, 0.000000,                     -0.137560, 1.137560, 0.000000, -0.137560
1.741935, 1.134103, 0.000000,                     -0.134104, 1.134103, 0.000000, -0.134104
1.670103, 1.128046, 0.000000,                     -0.128046, 1.128046, 0.000000, -0.128046
1.603960, 1.119460, 0.000000,                     -0.119460, 1.119460, 0.000000, -0.119460
1.542857, 1.108611, 0.000001,                     -0.108612, 1.108611, 0.000001, -0.108612
1.486239, 1.095846, 0.000001,                     -0.095846, 1.095846, 0.000001, -0.095846
1.433628, 1.081423, 0.000001,                     -0.081424, 1.081423, 0.000001, -0.081424
1.384615, 1.065530, 0.000001,                     -0.065531, 1.065530, 0.000001, -0.065531
1.338843, 1.048473, 0.000001,                     -0.048474, 1.048473, 0.000001, -0.048474
1.296000, 1.030663, 0.000002,                     -0.030665, 1.030663, 0.000002, -0.030665
1.255814, 1.012676, 0.000003,                     -0.012679, 1.012676, 0.000003, -0.012679
1.218045, 0.995143, 0.000004,                     0.004853, 0.995143, 0.000004, 0.004853
1.182482, 0.978671, 0.000007,                     0.021322, 0.978671, 0.000007, 0.021322
1.148936, 0.963801, 0.000010,                     0.036189, 0.963801, 0.000010, 0.036189
1.117241, 0.951086, 0.000014,                     0.048900, 0.951086, 0.000014, 0.048900
1.087248, 0.941069, 0.000021,                     0.058910, 0.941069, 0.000021, 0.058910
1.058824, 0.934236, 0.000031,                     0.065733, 0.934236, 0.000031, 0.065733
1.031847, 0.930990, 0.000047,                     0.068963, 0.930990, 0.000047, 0.068963
1.006211, 0.931768, 0.000072,                     0.068160, 0.931768, 0.000072, 0.068160
0.981818, 0.936913, 0.000112,                     0.062975, 0.936913, 0.000112, 0.062975
0.958580, 0.946506, 0.000181,                     0.053313, 0.946506, 0.000181, 0.053313
0.936416, 0.960399, 0.000301,                     0.039301, 0.960399, 0.000301, 0.039301
0.915254, 0.978268, 0.000515,                     0.021217, 0.978268, 0.000515, 0.021217
0.895028, 0.999481, 0.000915,                     -0.000397, 0.999481, 0.000915, -0.000397
0.875676, 1.022880, 0.001691,                     -0.024571, 1.022880, 0.001691, -0.024571
0.857143, 1.046334, 0.003263,                     -0.049597, 1.046334, 0.003263, -0.049597
0.839378, 1.066179, 0.006619,                     -0.072797, 1.066179, 0.006619, -0.072797
0.822335, 1.075395, 0.014256,                     -0.089651, 1.075395, 0.014256, -0.089651
0.805970, 1.058887, 0.032875,                     -0.091762, 1.058887, 0.032875, -0.091762
0.790244, 0.982598, 0.081016,                     -0.063614, 0.982598, 0.081016, -0.063614
0.775120, 0.777159, 0.204918,                     0.017923, 0.777159, 0.204918, 0.017923
0.760563, 0.397460, 0.458426,                     0.144115, 0.397460, 0.458426, 0.144115
0.746544, 0.072701, 0.725228,                     0.202071, 0.072701, 0.725228, 0.202071
0.733032, 0.007035, 0.829679,                     0.163285, 0.007035, 0.829679, 0.163285
0.720000, 0.028186, 0.845958,                     0.125856, 0.028186, 0.845958, 0.125856
0.707424, 0.030092, 0.852797,                     0.117111, 0.030092, 0.852797, 0.117111
0.695279, 0.016277, 0.862703,                     0.121020, 0.016277, 0.862703, 0.121020
0.683544, 0.007028, 0.870587,                     0.122385, 0.007028, 0.870587, 0.122385
0.672199, 0.007896, 0.873998,                     0.118106, 0.007896, 0.873998, 0.118106
0.661224, 0.011748, 0.874747,                     0.113505, 0.011748, 0.874747, 0.113505
0.650602, 0.011080, 0.874993,                     0.113927, 0.011080, 0.874993, 0.113927
0.640316, 0.006214, 0.874329,                     0.119457, 0.006214, 0.874329, 0.119457
0.630350, 0.005407, 0.869743,                     0.124850, 0.005407, 0.869743, 0.124850
0.620690, 0.018806, 0.857986,                     0.123208, 0.018806, 0.857986, 0.123208
0.611321, 0.050613, 0.838301,                     0.111086, 0.050613, 0.838301, 0.111086
0.602230, 0.095204, 0.813500,                     0.091296, 0.095204, 0.813500, 0.091296
0.593407, 0.139827, 0.788928,                     0.071245, 0.139827, 0.788928, 0.071245
0.584838, 0.170956, 0.770262,                     0.058782, 0.170956, 0.770262, 0.058782
0.576512, 0.179446, 0.761668,                     0.058886, 0.179446, 0.761668, 0.058886
0.568421, 0.162845, 0.765084,                     0.072071, 0.162845, 0.765084, 0.072071
0.560554, 0.125669, 0.779920,                     0.094411, 0.125669, 0.779920, 0.094411
0.552901, 0.078710, 0.802604,                     0.118686, 0.078710, 0.802604, 0.118686
0.545455, 0.037283, 0.826185,                     0.136532, 0.037283, 0.826185, 0.136532
0.538206, 0.016805, 0.841344,                     0.141851, 0.016805, 0.841344, 0.141851
0.531148, 0.025570, 0.839899,                     0.134530, 0.025570, 0.839899, 0.134530
0.524272, 0.059224, 0.819300,                     0.121476, 0.059224, 0.819300, 0.121476
0.517572, 0.102978, 0.784384,                     0.112639, 0.102978, 0.784384, 0.112639
0.511041, 0.140509, 0.744567,                     0.114924, 0.140509, 0.744567, 0.114924
0.504673, 0.161530, 0.709291,                     0.129179, 0.161530, 0.709291, 0.129179
0.498462, 0.163459, 0.685297,                     0.151244, 0.163459, 0.685297, 0.151244
0.492401, 0.149029, 0.676135,                     0.174836, 0.149029, 0.676135, 0.174836
0.486486, 0.123312, 0.682701,                     0.193988, 0.123312, 0.682701, 0.193988
0.480712, 0.091801, 0.703426,                     0.204773, 0.091801, 0.703426, 0.204773
0.475073, 0.059726, 0.733630,                     0.206644, 0.059726, 0.733630, 0.206644
0.469565, 0.032155, 0.764633,                     0.203212, 0.032155, 0.764633, 0.203212
0.464183, 0.014060, 0.784841,                     0.201099, 0.014060, 0.784841, 0.201099
0.458924, 0.009556, 0.784764,                     0.205679, 0.009556, 0.784764, 0.205679
0.453782, 0.020363, 0.763489,                     0.216148, 0.020363, 0.763489, 0.216148
0.448753, 0.044733, 0.729786,                     0.225482, 0.044733, 0.729786, 0.225482
0.443836, 0.077699, 0.696361,                     0.225940, 0.077699, 0.696361, 0.225940
0.439024, 0.111794, 0.673760,                     0.214446, 0.111794, 0.673760, 0.214446
0.434316, 0.137300, 0.667803,                     0.194897, 0.137300, 0.667803, 0.194897
0.429708, 0.142739, 0.679215,                     0.178046, 0.142739, 0.679215, 0.178046
0.425197, 0.118422, 0.702629,                     0.178949, 0.118422, 0.702629, 0.178949
0.420779, 0.066558, 0.724443,                     0.208999, 0.066558, 0.724443, 0.208999
0.416452, 0.013880, 0.725070,                     0.261050, 0.013880, 0.725070, 0.261050
0.412214, 0.004389, 0.692085,                     0.303526, 0.004389, 0.692085, 0.303526
0.408060, 0.060264, 0.632977,                     0.306760, 0.060264, 0.632977, 0.306760
0.403990, 0.154302, 0.565888,                     0.279810, 0.154302, 0.565888, 0.279810
0.400000, 0.225873, 0.497254,                     0.276873, 0.225873, 0.497254, 0.276873
